Filename		C:\Users\tld\Desktop\Cs-137\Cs137 100 cm with collimator on 16Oct24.prm	
TimeStamp		10/16/2024 12:58:10	
Description		Cs-137 Measurements. 100 cm from  source, aligned to detector plane, with  collimator on	
Institution		UWMRRC	
Software Version		3.5.0.40	
Machine Setup:
Room			
Machine Type		Varian	
Machine Model		TrueBeam	
Machine Serial Number		2167	
Beam Type		Undefined	
Energy		-1	
Wedge Angle	deg	0	
Wedge Type	deg	None	
Gantry Angle	deg	0	
Collimator Angle	deg	0	
Collimator Left	cm	0	
Collimator Right	cm	0	
Collimator Top	cm	0	
Collimator Bottom	cm	0	
Rate	MU/min	0	
Dose	MU	0	
Field Size	MU	0 x 0	
Collector Setup:
Orientation		Y Axis	
Tray Mount		No	
SSD	cm	100.000	
Alignment	cm	Light Field	
Buildup	cm	0.000	
Buildup Type	cm	WaterEquiv	
Calibration File	cm	C:\SNC\Profiler\Factors\270794003\ArrayCalibration_6x_35x35.cal	
Collector Config:
Collector Model		IC PROFILER	
Collector Serial		270794003	
Collector Revision		L	
Firmware Version	ms	2.5.6	
Measurement Mode	ms	Continuous	
Nominal Gain	ms	4	
Collection Interval	ms	125	
General Analysis
CAX Dose		1.856609039	
Photon Wedge Angle		6.77864E0096	
Analysis Config		Custom	
Flatness type		Variance	
Symmetry Type		Area (sym)	
Energy Calibration			
Energy Analysis		Intercept	
Penumbra Top		80	
Penumbra Bottom		20	
Flatness Field Percent		80	
Symmetry Field Percent		80	
Base Intensity Point		MAX	
Intensity Field Percentage		50	
X Axis Analysis
Field Size	cm	12.4709	
Beam Center	cm	-1.58469	
Light/Rad Coinc. Bottom	cm	-2.17988	
Light/Rad Coinc. Top	cm	-5.34926	
Penumbra Bottom	cm	2.20377	
Penumbra Top	cm	2.40357	
Flatness Result	perc	8.60371	
Symmetry Result	perc	1.89567	
Electron Energy	Ep0		
Electron Energy	D80		
Y Axis Analysis
Field Size	cm	12.6679	
Beam Center	cm	-1.95327	
Light/Rad Coinc. Bottom	cm	-1.71278	
Light/Rad Coinc. Top	cm	-5.61933	
Penumbra Bottom	cm	2.41397	
Penumbra Top	cm	2.46373	
Flatness Result	perc	10.8352	
Symmetry Result	perc	-2.08277	
Electron Energy	Ep0		
Electron Energy	D80		
Positive Diagonal Analysis
Field Size	cm	13.5957	
Beam Center	cm	-2.44029	
Light/Rad Coinc. Bottom	cm	-4.90398	
Light/Rad Coinc. Top	cm	-9.78455	
Penumbra Bottom	cm	2.02775	
Penumbra Top	cm	2.02052	
Flatness Result	perc	11.2444	
Symmetry Result	perc	3.00054	
Electron Energy	Ep0		
Electron Energy	D80		
Negative Diagonal Analysis
Field Size	cm	12.4556	
Beam Center	cm	0.256343	
Light/Rad Coinc. Bottom	cm	-8.17068	
Light/Rad Coinc. Top	cm	-7.65799	
Penumbra Bottom	cm	2.0893	
Penumbra Top	cm	2.21001	
Flatness Result	perc	8.37884	
Symmetry Result	perc	1.74129	
Electron Energy	Ep0		
Electron Energy	D80		
Measured Data:	Total Dose-Normalized (%)
Pulses:		0
TimerTics	(1 uSec)	99125685

Detector ID	X Axis Position(cm)	Set 1
	-16.00	2.02267385	
	-15.50	-1.48611835	
	-15.00	-3.62678487	
	-14.50	0.36694905	
	-14.00	2.29387412	
	-13.50	4.66392446	
	-13.00	1.46555194	
	-12.50	-1.02866288	
	-12.00	-2.13505023	
	-11.50	1.11904813	
	-11.00	4.35970891	
	-10.50	8.50531287	
	-10.00	5.74339334	
	-9.50	13.40918947	
	-9.00	21.80534770	
	-8.50	32.09223653	
	-8.00	48.08509679	
	-7.50	65.00620240	
	-7.00	77.79746348	
	-6.50	93.75214727	
	-6.00	93.20556963	
	-5.50	94.94682060	
	-5.00	98.49012278	
	-4.50	101.25124601	
	-4.00	98.96561191	
	-3.50	98.56103485	
	-3.00	96.85622161	
	-2.50	103.57821821	
	-2.00	100.18214094	
	-1.50	102.94438957	
	-1.00	102.81290094	
	0.00	100.00000000	
	1.00	95.50972423	
	1.50	103.18107981	
	2.00	101.64941375	
	2.50	100.24945779	
	3.00	95.67989648	
	3.50	85.47700830	
	4.00	72.13511193	
	4.50	55.77903205	
	5.00	45.42389540	
	5.50	37.53756491	
	6.00	21.15645120	
	6.50	11.65368236	
	7.00	10.97412675	
	7.50	7.78042637	
	8.00	3.13678989	
	8.50	6.60435871	
	9.00	3.08534223	
	9.50	6.19400274	
	10.00	2.29618055	
	10.50	1.93206036	
	11.00	5.61814896	
	11.50	6.47085580	
	12.00	1.62208449	
	12.50	4.63641495	
	13.00	3.42241892	
	13.50	2.32226800	
	14.00	2.27749893	
	14.50	1.72771295	
	15.00	6.65110752	
	15.50	3.60466068	
	16.00	4.07805827	
Detector ID	Y Axis Position(cm)	Set 1
	-16.00	0.57039346	
	-15.50	5.54678003	
	-15.00	4.42561472	
	-14.50	1.23088548	
	-14.00	3.94360658	
	-13.50	3.66825292	
	-13.00	3.37849537	
	-12.50	1.02263664	
	-12.00	1.33669751	
	-11.50	5.31255592	
	-11.00	7.81879759	
	-10.50	9.38635369	
	-10.00	14.28371875	
	-9.50	29.20528509	
	-9.00	36.68229255	
	-8.50	46.51314957	
	-8.00	66.31457672	
	-7.50	78.18037786	
	-7.00	94.41406260	
	-6.50	101.18729754	
	-6.00	102.64192222	
	-5.50	101.08738562	
	-5.00	101.10675295	
	-4.50	96.59041704	
	-4.00	100.32778016	
	-3.50	99.19685823	
	-3.00	98.90566161	
	-2.50	103.96778395	
	-2.00	102.25039483	
	-1.50	98.38265877	
	-1.00	100.96235069	
	-0.50	96.98771393	
	0.00	100.00000000	
	0.50	97.25737962	
	1.00	101.98497944	
	1.50	100.03980294	
	2.00	98.40491309	
	2.50	97.79145272	
	3.00	87.66455515	
	3.50	75.64338767	
	4.00	64.07191648	
	4.50	49.68670785	
	5.00	38.50157312	
	5.50	25.09644735	
	6.00	12.63855994	
	6.50	2.92897530	
	7.00	-0.18046354	
	7.50	0.94625966	
	8.00	4.51557905	
	8.50	3.51531836	
	9.00	2.32845449	
	9.50	1.11672813	
	10.00	-1.82422290	
	10.50	0.57548492	
	11.00	-2.85477056	
	11.50	-1.62040240	
	12.00	1.53773813	
	12.50	4.68476227	
	13.00	2.86736579	
	13.50	1.24945157	
	14.00	0.37121622	
	14.50	-1.45962125	
	15.00	-0.16416256	
	15.50	4.23930300	
	16.00	-6.41866824	
Detector ID	Positive Diagonal Position(cm)	Set 1
	-22.63	-3.66690036	
	-21.92	-2.52280145	
	-21.21	0.67369409	
	-20.51	-0.16283195	
	-19.80	-3.01497028	
	-19.09	2.97791783	
	-18.38	-1.53768560	
	-17.68	2.40472636	
	-16.97	-1.46224126	
	-16.26	3.23297417	
	-15.56	2.74048960	
	-14.85	-1.22159275	
	-14.14	2.43952131	
	-13.43	4.34820951	
	-12.73	4.05867893	
	-12.02	6.17695931	
	-11.31	3.12955609	
	-10.61	17.40958659	
	-9.90	33.22572089	
	-9.19	52.59909457	
	-8.49	80.71592994	
	-7.78	93.41796992	
	-7.07	96.24009495	
	-6.36	97.00447265	
	-5.66	96.35795988	
	-4.95	97.80911755	
	-4.24	102.18480657	
	-3.54	102.33066002	
	-2.83	103.17460588	
	-2.12	103.41272787	
	-1.41	98.55156862	
	0.00	100.00000000	
	1.41	103.13995899	
	2.12	98.28649348	
	2.83	95.29318256	
	3.54	78.35847824	
	4.24	57.44658598	
	4.95	33.32544118	
	5.66	16.23596120	
	6.36	8.40595564	
	7.07	3.92116553	
	7.78	6.12835862	
	8.49	7.94459732	
	9.19	3.41231369	
	9.90	6.13699643	
	10.61	2.95609571	
	11.31	6.58108864	
	12.02	4.10760596	
	12.73	2.57398867	
	13.43	-0.58630967	
	14.14	1.41678567	
	14.85	4.04081772	
	15.56	1.26830693	
	16.26	2.36843336	
	16.97	2.84318156	
	17.68	0.71944424	
	18.38	0.71533866	
	19.09	2.54729257	
	19.80	3.23115144	
	20.51	-0.66251149	
	21.21	-4.91184514	
	21.92	-0.47116667	
	22.63	-0.36807900	
Detector ID	Negative Diagonal Position(cm)	Set 1
	-22.63	0.14198527	
	-21.92	4.61806549	
	-21.21	-2.33155590	
	-20.51	1.87325548	
	-19.80	-3.22755778	
	-19.09	-3.66354810	
	-18.38	-1.11617630	
	-17.68	-2.38280306	
	-16.97	1.26483959	
	-16.26	-2.55943836	
	-15.56	0.16115372	
	-14.85	-2.42274994	
	-14.14	-0.84183132	
	-13.43	-0.40409802	
	-12.73	2.43242769	
	-12.02	-0.11308950	
	-11.31	-0.96668565	
	-10.61	1.41847742	
	-9.90	4.52924693	
	-9.19	3.44807741	
	-8.49	5.60562349	
	-7.78	7.35310259	
	-7.07	18.74459336	
	-6.36	41.27208698	
	-5.66	61.83480873	
	-4.95	82.59648882	
	-4.24	93.58584705	
	-3.54	98.36714279	
	-2.83	102.75852821	
	-2.12	99.35163371	
	-1.41	95.70916657	
	0.00	100.00000000	
	1.41	99.16373729	
	2.12	102.34127945	
	2.83	100.90983073	
	3.54	102.49778884	
	4.24	99.12900649	
	4.95	98.70016111	
	5.66	80.71564900	
	6.36	56.72604633	
	7.07	35.39211773	
	7.78	23.56619668	
	8.49	12.43680334	
	9.19	10.53730031	
	9.90	5.99591869	
	10.61	5.76778069	
	11.31	4.14858582	
	12.02	3.47854039	
	12.73	1.95945674	
	13.43	6.18515576	
	14.14	2.51111003	
	14.85	5.17510577	
	15.56	2.12784237	
	16.26	1.42764214	
	16.97	1.07655452	
	17.68	3.14916273	
	18.38	4.71494196	
	19.09	3.78529450	
	19.80	3.64231687	
	20.51	0.46771364	
	21.21	-0.18653031	
	21.92	2.43028883	
	22.63	7.65239274	
