Filename		C:\Users\tld\Desktop\Cs-137 .prm\Cs137 150 cm with collimator on 16Oct24.prm	
TimeStamp		10/16/2024 13:23:07	
Description		Cs-137 150 cm aligned to detector   plane collimator on	
Institution		UWMRRC	
Software Version		3.5.0.40	
Machine Setup:
Room			
Machine Type		Varian	
Machine Model		TrueBeam	
Machine Serial Number		2167	
Beam Type		Undefined	
Energy		-1	
Wedge Angle	deg	0	
Wedge Type	deg	None	
Gantry Angle	deg	0	
Collimator Angle	deg	0	
Collimator Left	cm	0	
Collimator Right	cm	0	
Collimator Top	cm	0	
Collimator Bottom	cm	0	
Rate	MU/min	0	
Dose	MU	0	
Field Size	MU	0 x 0	
Collector Setup:
Orientation		Y Axis	
Tray Mount		No	
SSD	cm	100.000	
Alignment	cm	Light Field	
Buildup	cm	0.000	
Buildup Type	cm	WaterEquiv	
Calibration File	cm	C:\SNC\Profiler\Factors\270794003\ArrayCalibration_6x_35x35.cal	
Collector Config:
Collector Model		IC PROFILER	
Collector Serial		270794003	
Collector Revision		L	
Firmware Version	ms	2.5.6	
Measurement Mode	ms	Continuous	
Nominal Gain	ms	4	
Collection Interval	ms	125	
General Analysis
CAX Dose		1.747828329	
Photon Wedge Angle		6.77864E0096	
Analysis Config		Custom	
Flatness type		Variance	
Symmetry Type		Area (sym)	
Energy Calibration			
Energy Analysis		Intercept	
Penumbra Top		80	
Penumbra Bottom		20	
Flatness Field Percent		80	
Symmetry Field Percent		80	
Base Intensity Point		MAX	
Intensity Field Percentage		50	
X Axis Analysis
Field Size	cm	18.4417	
Beam Center	cm	-1.42294	
Light/Rad Coinc. Bottom	cm	0.643806	
Light/Rad Coinc. Top	cm	-2.20208	
Penumbra Bottom	cm	-5.38692	
Penumbra Top	cm	4.11249	
Flatness Result	perc	12.0034	
Symmetry Result	perc	-0.0925168	
Electron Energy	Ep0		
Electron Energy	D80		
Y Axis Analysis
Field Size	cm	19.3989	
Beam Center	cm	-2.70798	
Light/Rad Coinc. Bottom	cm	2.40743	
Light/Rad Coinc. Top	cm	-3.00852	
Penumbra Bottom	cm	3.66402	
Penumbra Top	cm	3.68989	
Flatness Result	perc	13.9162	
Symmetry Result	perc	0.0730915	
Electron Energy	Ep0		
Electron Energy	D80		
Positive Diagonal Analysis
Field Size	cm	19.6208	
Beam Center	cm	-2.90961	
Light/Rad Coinc. Bottom	cm	-1.42212	
Light/Rad Coinc. Top	cm	-7.24134	
Penumbra Bottom	cm	4.02071	
Penumbra Top	cm	3.99088	
Flatness Result	perc	12.2496	
Symmetry Result	perc	0.076775	
Electron Energy	Ep0		
Electron Energy	D80		
Negative Diagonal Analysis
Field Size	cm	18.3371	
Beam Center	cm	0.989148	
Light/Rad Coinc. Bottom	cm	-5.96275	
Light/Rad Coinc. Top	cm	-3.98445	
Penumbra Bottom	cm	3.87007	
Penumbra Top	cm	3.33181	
Flatness Result	perc	11.0253	
Symmetry Result	perc	2.30943	
Electron Energy	Ep0		
Electron Energy	D80		
Measured Data:	Total Dose-Normalized (%)
Pulses:		0
TimerTics	(1 uSec)	225000685

Detector ID	X Axis Position(cm)	Set 1
	-16.00	7.74325994	
	-15.50	3.96523101	
	-15.00	-3.51261554	
	-14.50	3.73222382	
	-14.00	13.53344204	
	-13.50	14.32308188	
	-13.00	25.38702826	
	-12.50	22.98445895	
	-12.00	42.40749764	
	-11.50	52.80378398	
	-11.00	47.57802083	
	-10.50	62.75465848	
	-10.00	69.81574816	
	-9.50	80.88662316	
	-9.00	90.42052421	
	-8.50	95.41342671	
	-8.00	102.42884386	
	-7.50	104.64789584	
	-7.00	99.24787579	
	-6.50	107.95878150	
	-6.00	97.75035965	
	-5.50	97.06274655	
	-5.00	99.74303949	
	-4.50	107.73759064	
	-4.00	109.94867805	
	-3.50	94.68446315	
	-3.00	104.80732738	
	-2.50	102.63504193	
	-2.00	103.24933770	
	-1.50	112.75230008	
	-1.00	108.11672413	
	0.00	100.00000000	
	1.00	105.78727617	
	1.50	110.03700288	
	2.00	108.53580700	
	2.50	100.12561273	
	3.00	98.89858462	
	3.50	98.06283167	
	4.00	103.63211561	
	4.50	105.70518462	
	5.00	95.25867048	
	5.50	96.24604860	
	6.00	88.36294507	
	6.50	86.79418343	
	7.00	73.82770525	
	7.50	61.31930796	
	8.00	60.83323443	
	8.50	42.56291083	
	9.00	32.16564968	
	9.50	34.16201209	
	10.00	18.74889347	
	10.50	2.90652356	
	11.00	-1.10665301	
	11.50	0.17151345	
	12.00	6.47115160	
	12.50	6.26292452	
	13.00	-3.15916540	
	13.50	-3.21746535	
	14.00	6.36158102	
	14.50	7.46706275	
	15.00	-0.52068007	
	15.50	-1.13412392	
	16.00	2.30872256	
Detector ID	Y Axis Position(cm)	Set 1
	-16.00	-2.99201960	
	-15.50	2.93893936	
	-15.00	5.53371101	
	-14.50	18.08729873	
	-14.00	26.31515827	
	-13.50	34.84639219	
	-13.00	44.20377840	
	-12.50	55.57851295	
	-12.00	57.67384788	
	-11.50	71.53089636	
	-11.00	76.58866483	
	-10.50	89.86782675	
	-10.00	93.83748304	
	-9.50	105.25407439	
	-9.00	100.31897126	
	-8.50	109.35102327	
	-8.00	104.97934536	
	-7.50	101.58239273	
	-7.00	109.80883987	
	-6.50	107.62616680	
	-6.00	104.83263550	
	-5.50	110.28579999	
	-5.00	100.29961420	
	-4.50	105.32904295	
	-4.00	106.00629244	
	-3.50	102.45923344	
	-3.00	102.42825080	
	-2.50	107.91733716	
	-2.00	103.24835048	
	-1.50	108.61614044	
	-1.00	102.16491833	
	-0.50	102.98465367	
	0.00	100.00000000	
	0.50	103.91619102	
	1.00	103.25939044	
	1.50	104.12668180	
	2.00	108.28279817	
	2.50	110.02199813	
	3.00	101.88046506	
	3.50	98.37982472	
	4.00	97.18686552	
	4.50	99.07020624	
	5.00	95.49367704	
	5.50	86.38058784	
	6.00	71.37641659	
	6.50	62.34384905	
	7.00	55.93710511	
	7.50	48.65014273	
	8.00	41.71247818	
	8.50	41.81141133	
	9.00	24.34522951	
	9.50	14.94889351	
	10.00	13.79329193	
	10.50	2.72766532	
	11.00	-4.38312384	
	11.50	-5.64780913	
	12.00	-3.24669332	
	12.50	-1.59686545	
	13.00	1.22679900	
	13.50	0.76600546	
	14.00	-11.82404314	
	14.50	-5.99371378	
	15.00	-4.16144688	
	15.50	2.54744060	
	16.00	-9.73635564	
Detector ID	Positive Diagonal Position(cm)	Set 1
	-22.63	-13.84671200	
	-21.92	-2.53413704	
	-21.21	6.84578244	
	-20.51	-8.10648983	
	-19.80	-9.07014634	
	-19.09	-6.34553251	
	-18.38	-6.27243987	
	-17.68	-0.62296164	
	-16.97	3.47012797	
	-16.26	8.04777566	
	-15.56	10.45331370	
	-14.85	29.43348138	
	-14.14	28.13861319	
	-13.43	47.48791812	
	-12.73	54.54510948	
	-12.02	70.22506679	
	-11.31	80.63482161	
	-10.61	93.10078817	
	-9.90	90.80892924	
	-9.19	107.45840714	
	-8.49	111.88723890	
	-7.78	107.74636630	
	-7.07	104.55750880	
	-6.36	107.65457367	
	-5.66	104.68477045	
	-4.95	101.41176353	
	-4.24	108.67287837	
	-3.54	98.11891726	
	-2.83	102.05176093	
	-2.12	99.58457874	
	-1.41	105.01763534	
	0.00	100.00000000	
	1.41	105.24284404	
	2.12	104.64257005	
	2.83	109.22806302	
	3.54	108.13835720	
	4.24	99.87162889	
	4.95	94.24907528	
	5.66	79.76407927	
	6.36	71.08846281	
	7.07	51.86797963	
	7.78	41.25196350	
	8.49	29.76528946	
	9.19	13.61792692	
	9.90	8.89156018	
	10.61	4.67630354	
	11.31	5.38479677	
	12.02	2.49727828	
	12.73	3.43683608	
	13.43	2.92697876	
	14.14	2.09100946	
	14.85	-7.63924825	
	15.56	-10.43679324	
	16.26	-2.75749184	
	16.97	2.90027766	
	17.68	-5.80856410	
	18.38	-6.41976400	
	19.09	-0.37678098	
	19.80	-5.04881943	
	20.51	-5.14557280	
	21.21	-7.60445348	
	21.92	-7.06406008	
	22.63	-3.47091363	
Detector ID	Negative Diagonal Position(cm)	Set 1
	-22.63	-1.02866765	
	-21.92	-0.89425326	
	-21.21	-7.29118652	
	-20.51	-2.92204933	
	-19.80	-7.23792480	
	-19.09	-7.81051435	
	-18.38	-10.42917218	
	-17.68	-11.66828386	
	-16.97	-2.96020539	
	-16.26	-3.88278468	
	-15.56	0.86650551	
	-14.85	-5.22177382	
	-14.14	2.12757512	
	-13.43	-2.50005359	
	-12.73	14.82550279	
	-12.02	2.03791187	
	-11.31	14.53624654	
	-10.61	19.27492220	
	-9.90	31.72419318	
	-9.19	44.54237989	
	-8.49	51.10954812	
	-7.78	66.11488456	
	-7.07	80.13813639	
	-6.36	92.42679231	
	-5.66	95.99650099	
	-4.95	106.49161513	
	-4.24	105.75140653	
	-3.54	104.75761007	
	-2.83	112.07006789	
	-2.12	104.96227549	
	-1.41	103.33401739	
	0.00	100.00000000	
	1.41	106.58877179	
	2.12	102.29588789	
	2.83	109.53267361	
	3.54	105.42408476	
	4.24	98.22776968	
	4.95	108.03561822	
	5.66	110.73673613	
	6.36	107.69514166	
	7.07	105.13139745	
	7.78	103.84520839	
	8.49	86.82620916	
	9.19	72.30928722	
	9.90	62.17371611	
	10.61	49.76159789	
	11.31	33.74472066	
	12.02	14.47907056	
	12.73	7.78108081	
	13.43	6.03249299	
	14.14	13.99274640	
	14.85	-0.62423202	
	15.56	-3.59984516	
	16.26	4.37861070	
	16.97	-5.65007461	
	17.68	-4.45729847	
	18.38	-2.50425989	
	19.09	3.83193207	
	19.80	-3.77953938	
	20.51	2.12037771	
	21.21	1.95528613	
	21.92	3.29341438	
	22.63	1.19154005	
